wavelength,response
2.53000000,0.00000000
2.54000000,0.00000000
2.55000000,0.00000000
2.56000000,0.00000000
2.57000000,0.00000000
2.58000000,0.00000000
2.59000000,0.00000000
2.60000000,0.00000000
2.61000000,0.00000000
2.62000000,0.00000000
2.63000000,0.00000000
2.64000000,0.00000000
2.65000000,0.00000000
2.66000000,0.00000000
2.67000000,0.00000000
2.68000000,0.00000000
2.69000000,0.00000000
2.70000000,0.00000000
2.71000000,0.00000000
2.72000000,0.00000000
2.73000000,0.00000000
2.74000000,0.00000000
2.75000000,0.00000000
2.76000000,0.00000000
2.77000000,0.00000000
2.78000000,0.00000000
2.79000000,0.00000000
2.80000000,0.00000000
2.81000000,0.00000000
2.82000000,0.00000000
2.83000000,0.00000000
2.84000000,0.00000000
2.85000000,0.00000000
2.86000000,0.00000000
2.87000000,0.00000000
2.88000000,0.00000000
2.89000000,0.00000000
2.90000000,0.00000000
2.91000000,0.00000000
2.92000000,0.00000000
2.93000000,0.00000000
2.94000000,0.00000000
2.95000000,0.00000000
2.96000000,0.00000000
2.97000000,0.00000000
2.98000000,0.00000000
2.99000000,0.00000000
3.00000000,0.00000000
3.01000000,0.00000000
3.02000000,0.00000000
3.03000000,0.00000000
3.04000000,0.00000000
3.05000000,0.00000000
3.06000000,0.00000000
3.07000000,0.00000000
3.08000000,0.00000000
3.09000000,0.00000000
3.10000000,0.00000000
3.11000000,0.00000000
3.12000000,0.00000000
3.13000000,0.00000000
3.14000000,0.00000000
3.15000000,0.00000000
3.16000000,0.00000000
3.17000000,0.00000000
3.18000000,0.00000000
3.19000000,0.00000000
3.20000000,0.00000000
3.21000000,0.00000000
3.22000000,0.00000000
3.23000000,0.00000000
3.24000000,0.00000000
3.25000000,0.00000000
3.26000000,0.00000000
3.27000000,0.00000000
3.28000000,0.00000000
3.29000000,0.00000000
3.30000000,0.00000000
3.31000000,0.00000000
3.32000000,0.00000000
3.33000000,0.00000000
3.34000000,0.00000000
3.35000000,0.00000000
3.36000000,0.00000000
3.37000000,0.00000000
3.38000000,0.00000000
3.39000000,0.00000000
3.40000000,0.00000000
3.41000000,0.00000000
3.42000000,0.00000000
3.43000000,0.00000000
3.44000000,0.00000000
3.45000000,0.00000000
3.46000000,0.00000000
3.47000000,0.00000000
3.48000000,0.00000000
3.49000000,0.00000000
3.50000000,0.00000000
3.51000000,0.00000000
3.52000000,0.00000000
3.53000000,0.00000000
3.54000000,0.00000000
3.55000000,0.00000000
3.56000000,0.00000000
3.57000000,0.00000000
3.58000000,0.00000000
3.59000000,0.00000000
3.60000000,0.00000000
3.61000000,0.00000000
3.62000000,0.00000000
3.63000000,0.00000000
3.64000000,0.00000000
3.65000000,0.00000000
3.66000000,0.00000000
3.67000000,0.00000000
3.68000000,0.00000000
3.69000000,0.00000000
3.70000000,0.00000000
3.71000000,0.00000000
3.72000000,0.00000000
3.73000000,0.00000000
3.74000000,0.00000000
3.75000000,0.00000000
3.76000000,0.00000000
3.77000000,0.00000000
3.78000000,0.00000000
3.79000000,0.00000000
3.80000000,0.00000000
3.81000000,0.00000000
3.82000000,0.00000000
3.83000000,0.00000000
3.84000000,0.00000000
3.85000000,0.00000000
3.86000000,0.00000000
3.87000000,0.00000000
3.88000000,0.00000000
3.89000000,0.00000000
3.90000000,0.00000000
3.91000000,0.00000000
3.92000000,0.00000000
3.93000000,0.00000000
3.94000000,0.00000000
3.95000000,0.00000000
3.96000000,0.00000000
3.97000000,0.00000000
3.98000000,0.00000000
3.99000000,0.00000000
4.00000000,0.00000000
4.01000000,0.00000000
4.02000000,0.00000000
4.03000000,0.00000000
4.04000000,0.00000000
4.05000000,0.00000000
4.06000000,0.00000000
4.07000000,0.00000000
4.08000000,0.00000000
4.09000000,0.00000000
4.10000000,0.00000000
4.11000000,0.00000000
4.12000000,0.00000000
4.13000000,0.00000000
4.14000000,0.00000000
4.15000000,0.00000000
4.16000000,0.00000000
4.17000000,0.00000000
4.18000000,0.00000000
4.19000000,0.00000000
4.20000000,0.00000000
4.21000000,0.00000000
4.22000000,0.00000000
4.23000000,0.00000000
4.24000000,0.00000000
4.25000000,0.00000000
4.26000000,0.00000000
4.27000000,0.00000000
4.28000000,0.00000000
4.29000000,0.00000000
4.30000000,0.00000000
4.31000000,0.00000000
4.32000000,0.00000000
4.33000000,0.00000000
4.34000000,0.00000000
4.35000000,0.00000000
4.36000000,0.00000000
4.37000000,0.00000000
4.38000000,0.00000000
4.39000000,0.00000000
4.40000000,0.00000000
4.41000000,0.00000000
4.42000000,0.00000000
4.43000000,0.00000000
4.44000000,0.00000000
4.45000000,0.00000000
4.46000000,0.00000000
4.47000000,0.00000000
4.48000000,0.00000000
4.49000000,0.00000000
4.50000000,0.00000000
4.51000000,0.00000000
4.52000000,0.00000000
4.53000000,0.00000000
4.54000000,0.00000000
4.55000000,0.00000000
4.56000000,0.00000000
4.57000000,0.00000000
4.58000000,0.00000000
4.59000000,0.00000000
4.60000000,0.00000000
4.61000000,0.00000000
4.62000000,0.00000000
4.63000000,0.00000000
4.64000000,0.00000000
4.65000000,0.00000000
4.66000000,0.00000000
4.67000000,0.00000000
4.68000000,0.00000000
4.69000000,0.00000000
4.70000000,0.00000000
4.71000000,0.00000000
4.72000000,0.00000000
4.73000000,0.00000000
4.74000000,0.00000000
4.75000000,0.00000000
4.76000000,0.00000000
4.77000000,0.00000000
4.78000000,0.00000000
4.79000000,0.00000000
4.80000000,0.00000000
4.81000000,0.00000000
4.82000000,0.00000000
4.83000000,0.00000000
4.84000000,0.00000000
4.85000000,0.00000000
4.86000000,0.00000000
4.87000000,0.00000000
4.88000000,0.00000000
4.89000000,0.00000000
4.90000000,0.00000000
4.91000000,0.00000000
4.92000000,0.00000000
4.93000000,0.00000000
4.94000000,0.00000000
4.95000000,0.00000000
4.96000000,0.00000000
4.97000000,0.00000000
4.98000000,0.00000000
4.99000000,0.00000000
5.00000000,0.00000000
5.01000000,0.00000000
5.02000000,0.00000000
5.03000000,0.00000000
5.04000000,0.00000000
5.05000000,0.00000000
5.06000000,0.00000000
5.07000000,0.00000000
5.08000000,0.00000000
5.09000000,0.00000000
5.10000000,0.00000000
5.11000000,0.00000005
5.12000000,0.00000004
5.13000000,0.00000005
5.14000000,0.00000003
5.15000000,0.00000003
5.16000000,0.00000003
5.17000000,0.00000003
5.18000000,0.00000003
5.19000000,0.00000004
5.20000000,0.00000004
5.21000000,0.00000003
5.22000000,0.00000003
5.23000000,0.00000003
5.24000000,0.00000003
5.25000000,0.00000004
5.26000000,0.00000003
5.27000000,0.00000004
5.28000000,0.00000004
5.29000000,0.00000004
5.30000000,0.00000004
5.31000000,0.00000005
5.32000000,0.00000005
5.33000000,0.00000005
5.34000000,0.00000005
5.35000000,0.00000005
5.36000000,0.00000003
5.37000000,0.00000004
5.38000000,0.00000005
5.39000000,0.00000005
5.40000000,0.00000005
5.41000000,0.00000005
5.42000000,0.00000004
5.43000000,0.00000003
5.44000000,0.00000005
5.45000000,0.00000006
5.46000000,0.00000006
5.47000000,0.00000006
5.48000000,0.00000006
5.49000000,0.00000006
5.50000000,0.00000006
5.51000000,0.00000006
5.52000000,0.00000007
5.53000000,0.00000007
5.54000000,0.00000007
5.55000000,0.00000007
5.56000000,0.00000007
5.57000000,0.00000007
5.58000000,0.00000007
5.59000000,0.00000007
5.60000000,0.00000007
5.61000000,0.00000007
5.62000000,0.00000007
5.63000000,0.00000007
5.64000000,0.00000007
5.65000000,0.00000007
5.66000000,0.00000006
5.67000000,0.00000006
5.68000000,0.00000006
5.69000000,0.00000006
5.70000000,0.00000006
5.71000000,0.00000006
5.72000000,0.00000006
5.73000000,0.00000006
5.74000000,0.00000006
5.75000000,0.00000007
5.76000000,0.00000007
5.77000000,0.00000007
5.78000000,0.00000007
5.79000000,0.00000007
5.80000000,0.00000007
5.81000000,0.00000007
5.82000000,0.00000008
5.83000000,0.00000008
5.84000000,0.00000008
5.85000000,0.00000008
5.86000000,0.00000008
5.87000000,0.00000008
5.88000000,0.00000008
5.89000000,0.00000008
5.90000000,0.00000008
5.91000000,0.00000008
5.92000000,0.00000008
5.93000000,0.00000008
5.94000000,0.00000008
5.95000000,0.00000008
5.96000000,0.00000009
5.97000000,0.00000009
5.98000000,0.00000009
5.99000000,0.00000009
6.00000000,0.00000009
6.01000000,0.00000009
6.02000000,0.00000009
6.03000000,0.00000009
6.04000000,0.00000010
6.05000000,0.00000010
6.06000000,0.00000009
6.07000000,0.00000010
6.08000000,0.00000010
6.09000000,0.00000010
6.10000000,0.00000011
6.11000000,0.00000011
6.12000000,0.00000012
6.13000000,0.00000014
6.14000000,0.00000017
6.15000000,0.00000021
6.16000000,0.00000026
6.17000000,0.00000034
6.18000000,0.00000046
6.19000000,0.00000064
6.20000000,0.00000088
6.21000000,0.00000111
6.22000000,0.00000126
6.23000000,0.00000170
6.24000000,0.00000132
6.25000000,0.00000190
6.26000000,0.00000162
6.27000000,0.00000164
6.28000000,0.00000205
6.29000000,0.00000121
6.30000000,0.00000147
6.31000000,0.00000112
6.32000000,0.00000065
6.33000000,0.00000086
6.34000000,0.00000163
6.35000000,0.00000101
6.36000000,0.00000001
6.37000000,0.00000022
6.38000000,0.00000001
6.39000000,0.00000153
6.40000000,0.00000184
6.41000000,0.00000137
6.42000000,0.00000119
6.43000000,0.00000207
6.44000000,0.00000001
6.45000000,0.00000039
6.46000000,0.00000000
6.47000000,0.00000062
6.48000000,0.00000036
6.49000000,0.00000020
6.50000000,0.00000014
6.51000000,0.00000153
6.52000000,0.00000436
6.53000000,0.00000337
6.54000000,0.00000063
6.55000000,0.00000029
6.56000000,0.00000005
6.57000000,0.00000000
6.58000000,0.00000000
6.59000000,0.00000000
6.60000000,0.00000000
6.61000000,0.00000000
6.62000000,0.00000000
6.63000000,0.00000007
6.64000000,0.00000004
6.65000000,0.00000000
6.66000000,0.00000000
6.67000000,0.00000000
6.68000000,0.00000000
6.69000000,0.00000000
6.70000000,0.00000016
6.71000000,0.00000000
6.72000000,0.00000000
6.73000000,0.00000014
6.74000000,0.00000354
6.75000000,0.00000043
6.76000000,0.00000327
6.77000000,0.00000317
6.78000000,0.00000087
6.79000000,0.00000510
6.80000000,0.00000133
6.81000000,0.00000691
6.82000000,0.00001313
6.83000000,0.00000991
6.84000000,0.00001251
6.85000000,0.00000939
6.86000000,0.00000269
6.87000000,0.00000291
6.88000000,0.00001112
6.89000000,0.00001465
6.90000000,0.00001987
6.91000000,0.00000355
6.92000000,0.00001930
6.93000000,0.00000350
6.94000000,0.00000347
6.95000000,0.00000346
6.96000000,0.00000350
6.97000000,0.00000376
6.98000000,0.00001309
6.99000000,0.00000393
7.00000000,0.00000347
7.01000000,0.00001267
7.02000000,0.00000001
7.03000000,0.00000001
7.04000000,0.00000060
7.05000000,0.00000002
7.06000000,0.00000272
7.07000000,0.00000003
7.08000000,0.00000004
7.09000000,0.00000005
7.10000000,0.00000501
7.11000000,0.00000008
7.12000000,0.00000010
7.13000000,0.00000013
7.14000000,0.00000017
7.15000000,0.00000023
7.16000000,0.00001176
7.17000000,0.00000044
7.18000000,0.00000062
7.19000000,0.00000087
7.20000000,0.00002806
7.21000000,0.00172020
7.22000000,0.00169530
7.23000000,0.00212020
7.24000000,0.00223050
7.25000000,0.00205570
7.26000000,0.00216010
7.27000000,0.00191770
7.28000000,0.00115530
7.29000000,0.00164450
7.30000000,0.00268890
7.31000000,0.00337140
7.32000000,0.00359180
7.33000000,0.00352190
7.34000000,0.00377440
7.35000000,0.00368400
7.36000000,0.00333510
7.37000000,0.00333360
7.38000000,0.00317280
7.39000000,0.00337910
7.40000000,0.00366030
7.41000000,0.00427890
7.42000000,0.00543070
7.43000000,0.00711410
7.44000000,0.00925160
7.45000000,0.01171000
7.46000000,0.01442100
7.47000000,0.01742900
7.48000000,0.02123300
7.49000000,0.02620700
7.50000000,0.03325700
7.51000000,0.04313200
7.52000000,0.05694600
7.53000000,0.07568200
7.54000000,0.10010000
7.55000000,0.12979000
7.56000000,0.16432000
7.57000000,0.20006000
7.58000000,0.23102000
7.59000000,0.25482000
7.60000000,0.26893000
7.61000000,0.27304000
7.62000000,0.26850000
7.63000000,0.25881000
7.64000000,0.24657000
7.65000000,0.23555000
7.66000000,0.22577000
7.67000000,0.21849000
7.68000000,0.21245000
7.69000000,0.20893000
7.70000000,0.20793000
7.71000000,0.20820000
7.72000000,0.20847000
7.73000000,0.21001000
7.74000000,0.21156000
7.75000000,0.21183000
7.76000000,0.21338000
7.77000000,0.21494000
7.78000000,0.21778000
7.79000000,0.22190000
7.80000000,0.22604000
7.81000000,0.23019000
7.82000000,0.23435000
7.83000000,0.23852000
7.84000000,0.24269000
7.85000000,0.24559000
7.86000000,0.24849000
7.87000000,0.25010000
7.88000000,0.25172000
7.89000000,0.25333000
7.90000000,0.25626000
7.91000000,0.25788000
7.92000000,0.26082000
7.93000000,0.26637000
7.94000000,0.27063000
7.95000000,0.27621000
7.96000000,0.28311000
7.97000000,0.29134000
7.98000000,0.29959000
7.99000000,0.30654000
8.00000000,0.31219000
8.01000000,0.31654000
8.02000000,0.32090000
8.03000000,0.32394000
8.04000000,0.32699000
8.05000000,0.32872000
8.06000000,0.32913000
8.07000000,0.33087000
8.08000000,0.33128000
8.09000000,0.33435000
8.10000000,0.33610000
8.11000000,0.33651000
8.12000000,0.33693000
8.13000000,0.33601000
8.14000000,0.33374000
8.15000000,0.33146000
8.16000000,0.32784000
8.17000000,0.32421000
8.18000000,0.32191000
8.19000000,0.32095000
8.20000000,0.31865000
8.21000000,0.31768000
8.22000000,0.31536000
8.23000000,0.31439000
8.24000000,0.31342000
8.25000000,0.31108000
8.26000000,0.30738000
8.27000000,0.30230000
8.28000000,0.29721000
8.29000000,0.29211000
8.30000000,0.29110000
8.31000000,0.29145000
8.32000000,0.29180000
8.33000000,0.29352000
8.34000000,0.29387000
8.35000000,0.29285000
8.36000000,0.29183000
8.37000000,0.29218000
8.38000000,0.29390000
8.39000000,0.29702000
8.40000000,0.30014000
8.41000000,0.30188000
8.42000000,0.30501000
8.43000000,0.30815000
8.44000000,0.31130000
8.45000000,0.31445000
8.46000000,0.31900000
8.47000000,0.32356000
8.48000000,0.32813000
8.49000000,0.33271000
8.50000000,0.33730000
8.51000000,0.34190000
8.52000000,0.34511000
8.53000000,0.34832000
8.54000000,0.35154000
8.55000000,0.35477000
8.56000000,0.35801000
8.57000000,0.35984000
8.58000000,0.36167000
8.59000000,0.36209000
8.60000000,0.36109000
8.61000000,0.36010000
8.62000000,0.35910000
8.63000000,0.35809000
8.64000000,0.35566000
8.65000000,0.35465000
8.66000000,0.35363000
8.67000000,0.35261000
8.68000000,0.35159000
8.69000000,0.34913000
8.70000000,0.34810000
8.71000000,0.34563000
8.72000000,0.34460000
8.73000000,0.34355000
8.74000000,0.33963000
8.75000000,0.33281000
8.76000000,0.31733000
8.77000000,0.29025000
8.78000000,0.25300000
8.79000000,0.21710000
8.80000000,0.19706000
8.81000000,0.20309000
8.82000000,0.22801000
8.83000000,0.26171000
8.84000000,0.29112000
8.85000000,0.31185000
8.86000000,0.32387000
8.87000000,0.33154000
8.88000000,0.33630000
8.89000000,0.34107000
8.90000000,0.34585000
8.91000000,0.35064000
8.92000000,0.35397000
8.93000000,0.35731000
8.94000000,0.35918000
8.95000000,0.35958000
8.96000000,0.36146000
8.97000000,0.36334000
8.98000000,0.36374000
8.99000000,0.36563000
9.00000000,0.36603000
9.01000000,0.36496000
9.02000000,0.36388000
9.03000000,0.36279000
9.04000000,0.36171000
9.05000000,0.36062000
9.06000000,0.36102000
9.07000000,0.36291000
9.08000000,0.36331000
9.09000000,0.36520000
9.10000000,0.36710000
9.11000000,0.37051000
9.12000000,0.37091000
9.13000000,0.37282000
9.14000000,0.37323000
9.15000000,0.37213000
9.16000000,0.37103000
9.17000000,0.36842000
9.18000000,0.36731000
9.19000000,0.36468000
9.20000000,0.36356000
9.21000000,0.36396000
9.22000000,0.36284000
9.23000000,0.36323000
9.24000000,0.36210000
9.25000000,0.36249000
9.26000000,0.35984000
9.27000000,0.36023000
9.28000000,0.35909000
9.29000000,0.35947000
9.30000000,0.36139000
9.31000000,0.36178000
9.32000000,0.36370000
9.33000000,0.36409000
9.34000000,0.36448000
9.35000000,0.36641000
9.36000000,0.36680000
9.37000000,0.36565000
9.38000000,0.36604000
9.39000000,0.36643000
9.40000000,0.36837000
9.41000000,0.36876000
9.42000000,0.37071000
9.43000000,0.37110000
9.44000000,0.37305000
9.45000000,0.37500000
9.46000000,0.37695000
9.47000000,0.37891000
9.48000000,0.38243000
9.49000000,0.38596000
9.50000000,0.38950000
9.51000000,0.39304000
9.52000000,0.39502000
9.53000000,0.39544000
9.54000000,0.39585000
9.55000000,0.39469000
9.56000000,0.39196000
9.57000000,0.39079000
9.58000000,0.38805000
9.59000000,0.38529000
9.60000000,0.38253000
9.61000000,0.37977000
9.62000000,0.37858000
9.63000000,0.37739000
9.64000000,0.37778000
9.65000000,0.37976000
9.66000000,0.38174000
9.67000000,0.38532000
9.68000000,0.38731000
9.69000000,0.39091000
9.70000000,0.39291000
9.71000000,0.39331000
9.72000000,0.39372000
9.73000000,0.39412000
9.74000000,0.39292000
9.75000000,0.39172000
9.76000000,0.39212000
9.77000000,0.39252000
9.78000000,0.39293000
9.79000000,0.39494000
9.80000000,0.39696000
9.81000000,0.39898000
9.82000000,0.40100000
9.83000000,0.40303000
9.84000000,0.40506000
9.85000000,0.40709000
9.86000000,0.40913000
9.87000000,0.41117000
9.88000000,0.41321000
9.89000000,0.41526000
9.90000000,0.41894000
9.91000000,0.42263000
9.92000000,0.42795000
9.93000000,0.43165000
9.94000000,0.43700000
9.95000000,0.44071000
9.96000000,0.44444000
9.97000000,0.44817000
9.98000000,0.45026000
9.99000000,0.45400000
10.00000000,0.45610000
10.01000000,0.45985000
10.02000000,0.46526000
10.03000000,0.46903000
10.04000000,0.47446000
10.05000000,0.48155000
10.06000000,0.48866000
10.07000000,0.49577000
10.08000000,0.50124000
10.09000000,0.50839000
10.10000000,0.51554000
10.11000000,0.52105000
10.12000000,0.52656000
10.13000000,0.53209000
10.14000000,0.53595000
10.15000000,0.53982000
10.16000000,0.54370000
10.17000000,0.54758000
10.18000000,0.54812000
10.19000000,0.54866000
10.20000000,0.54752000
10.21000000,0.54469000
10.22000000,0.54186000
10.23000000,0.53902000
10.24000000,0.53618000
10.25000000,0.53501000
10.26000000,0.53216000
10.27000000,0.52760000
10.28000000,0.52473000
10.29000000,0.52016000
10.30000000,0.51727000
10.31000000,0.51268000
10.32000000,0.51148000
10.33000000,0.51027000
10.34000000,0.50907000
10.35000000,0.50956000
10.36000000,0.51005000
10.37000000,0.51054000
10.38000000,0.51104000
10.39000000,0.50982000
10.40000000,0.50860000
10.41000000,0.50737000
10.42000000,0.50614000
10.43000000,0.50491000
10.44000000,0.50196000
10.45000000,0.50244000
10.46000000,0.50120000
10.47000000,0.50167000
10.48000000,0.50215000
10.49000000,0.50436000
10.50000000,0.50657000
10.51000000,0.50878000
10.52000000,0.51100000
10.53000000,0.51148000
10.54000000,0.51371000
10.55000000,0.51593000
10.56000000,0.51816000
10.57000000,0.52039000
10.58000000,0.52437000
10.59000000,0.52661000
10.60000000,0.53059000
10.61000000,0.53284000
10.62000000,0.53509000
10.63000000,0.53735000
10.64000000,0.53960000
10.65000000,0.54186000
10.66000000,0.54413000
10.67000000,0.54640000
10.68000000,0.55042000
10.69000000,0.55270000
10.70000000,0.55322000
10.71000000,0.55550000
10.72000000,0.55602000
10.73000000,0.55477000
10.74000000,0.55352000
10.75000000,0.55226000
10.76000000,0.55100000
10.77000000,0.54974000
10.78000000,0.54848000
10.79000000,0.54721000
10.80000000,0.54772000
10.81000000,0.54823000
10.82000000,0.55051000
10.83000000,0.55281000
10.84000000,0.55510000
10.85000000,0.55740000
10.86000000,0.55970000
10.87000000,0.56022000
10.88000000,0.55894000
10.89000000,0.55766000
10.90000000,0.55638000
10.91000000,0.55330000
10.92000000,0.55021000
10.93000000,0.54891000
10.94000000,0.54581000
10.95000000,0.54270000
10.96000000,0.54140000
10.97000000,0.54008000
10.98000000,0.53877000
10.99000000,0.53926000
11.00000000,0.53975000
11.01000000,0.54024000
11.02000000,0.54254000
11.03000000,0.54485000
11.04000000,0.54716000
11.05000000,0.54766000
11.06000000,0.54816000
11.07000000,0.54683000
11.08000000,0.54550000
11.09000000,0.54599000
11.10000000,0.54466000
11.11000000,0.54515000
11.12000000,0.54381000
11.13000000,0.54429000
11.14000000,0.54478000
11.15000000,0.54344000
11.16000000,0.54392000
11.17000000,0.54073000
11.18000000,0.53938000
11.19000000,0.53617000
11.20000000,0.53296000
11.21000000,0.52975000
11.22000000,0.52653000
11.23000000,0.52330000
11.24000000,0.52191000
11.25000000,0.52052000
11.26000000,0.51913000
11.27000000,0.51959000
11.28000000,0.52191000
11.29000000,0.52238000
11.30000000,0.52470000
11.31000000,0.52703000
11.32000000,0.53122000
11.33000000,0.53355000
11.34000000,0.53589000
11.35000000,0.53823000
11.36000000,0.54058000
11.37000000,0.54105000
11.38000000,0.54340000
11.39000000,0.54388000
11.40000000,0.54624000
11.41000000,0.54672000
11.42000000,0.54907000
11.43000000,0.55144000
11.44000000,0.55380000
11.45000000,0.55617000
11.46000000,0.55855000
11.47000000,0.56281000
11.48000000,0.56519000
11.49000000,0.56947000
11.50000000,0.57186000
11.51000000,0.57614000
11.52000000,0.58044000
11.53000000,0.58474000
11.54000000,0.58905000
11.55000000,0.59336000
11.56000000,0.59768000
11.57000000,0.60010000
11.58000000,0.60253000
11.59000000,0.60496000
11.60000000,0.60548000
11.61000000,0.60791000
11.62000000,0.60844000
11.63000000,0.61088000
11.64000000,0.61140000
11.65000000,0.61384000
11.66000000,0.61437000
11.67000000,0.61682000
11.68000000,0.61735000
11.69000000,0.61788000
11.70000000,0.61841000
11.71000000,0.61701000
11.72000000,0.61560000
11.73000000,0.61227000
11.74000000,0.60892000
11.75000000,0.60751000
11.76000000,0.60415000
11.77000000,0.60079000
11.78000000,0.59936000
11.79000000,0.59793000
11.80000000,0.59649000
11.81000000,0.59700000
11.82000000,0.59555000
11.83000000,0.59606000
11.84000000,0.59656000
11.85000000,0.59511000
11.86000000,0.59366000
11.87000000,0.59221000
11.88000000,0.59075000
11.89000000,0.58929000
11.90000000,0.58587000
11.91000000,0.58440000
11.92000000,0.58293000
11.93000000,0.58145000
11.94000000,0.57997000
11.95000000,0.58046000
11.96000000,0.57898000
11.97000000,0.57946000
11.98000000,0.57994000
11.99000000,0.57845000
12.00000000,0.57894000
12.01000000,0.57744000
12.02000000,0.57594000
12.03000000,0.57444000
12.04000000,0.57294000
12.05000000,0.57143000
12.06000000,0.56793000
12.07000000,0.56641000
12.08000000,0.56291000
12.09000000,0.56337000
12.10000000,0.56185000
12.11000000,0.56231000
12.12000000,0.56277000
12.13000000,0.56524000
12.14000000,0.56770000
12.15000000,0.57017000
12.16000000,0.57264000
12.17000000,0.57512000
12.18000000,0.57759000
12.19000000,0.58007000
12.20000000,0.58457000
12.21000000,0.58505000
12.22000000,0.58754000
12.23000000,0.59003000
12.24000000,0.59052000
12.25000000,0.59302000
12.26000000,0.59350000
12.27000000,0.59398000
12.28000000,0.59649000
12.29000000,0.59698000
12.30000000,0.59949000
12.31000000,0.60200000
12.32000000,0.60655000
12.33000000,0.61110000
12.34000000,0.61566000
12.35000000,0.62022000
12.36000000,0.62480000
12.37000000,0.62938000
12.38000000,0.63396000
12.39000000,0.64059000
12.40000000,0.64520000
12.41000000,0.65185000
12.42000000,0.65851000
12.43000000,0.66313000
12.44000000,0.66981000
12.45000000,0.67445000
12.46000000,0.68114000
12.47000000,0.68580000
12.48000000,0.69046000
12.49000000,0.69307000
12.50000000,0.69568000
12.51000000,0.69830000
12.52000000,0.70092000
12.53000000,0.69941000
12.54000000,0.69997000
12.55000000,0.69846000
12.56000000,0.69695000
12.57000000,0.69544000
12.58000000,0.69392000
12.59000000,0.69240000
12.60000000,0.69295000
12.61000000,0.69350000
12.62000000,0.69405000
12.63000000,0.69668000
12.64000000,0.69931000
12.65000000,0.70194000
12.66000000,0.70458000
12.67000000,0.70493000
12.68000000,0.70758000
12.69000000,0.70813000
12.70000000,0.70869000
12.71000000,0.70925000
12.72000000,0.70981000
12.73000000,0.71058000
12.74000000,0.71113000
12.75000000,0.71169000
12.76000000,0.71435000
12.77000000,0.71491000
12.78000000,0.71758000
12.79000000,0.72024000
12.80000000,0.72291000
12.81000000,0.72559000
12.82000000,0.73038000
12.83000000,0.73517000
12.84000000,0.73997000
12.85000000,0.74478000
12.86000000,0.75171000
12.87000000,0.75654000
12.88000000,0.76136000
12.89000000,0.76832000
12.90000000,0.77104000
12.91000000,0.77589000
12.92000000,0.77862000
12.93000000,0.78135000
12.94000000,0.78196000
12.95000000,0.78469000
12.96000000,0.78530000
12.97000000,0.78377000
12.98000000,0.78437000
12.99000000,0.78498000
13.00000000,0.78558000
13.01000000,0.78619000
13.02000000,0.78679000
13.03000000,0.78954000
13.04000000,0.79229000
13.05000000,0.79505000
13.06000000,0.79781000
13.07000000,0.80273000
13.08000000,0.80980000
13.09000000,0.81473000
13.10000000,0.82182000
13.11000000,0.82893000
13.12000000,0.83604000
13.13000000,0.84316000
13.14000000,0.84813000
13.15000000,0.85527000
13.16000000,0.86243000
13.17000000,0.86742000
13.18000000,0.87242000
13.19000000,0.87742000
13.20000000,0.88243000
13.21000000,0.88745000
13.22000000,0.89030000
13.23000000,0.89315000
13.24000000,0.89601000
13.25000000,0.89887000
13.26000000,0.90173000
13.27000000,0.90459000
13.28000000,0.90528000
13.29000000,0.90596000
13.30000000,0.90664000
13.31000000,0.90732000
13.32000000,0.90581000
13.33000000,0.90429000
13.34000000,0.90058000
13.35000000,0.89906000
13.36000000,0.89753000
13.37000000,0.89380000
13.38000000,0.89226000
13.39000000,0.89073000
13.40000000,0.88919000
13.41000000,0.88985000
13.42000000,0.89051000
13.43000000,0.89118000
13.44000000,0.89184000
13.45000000,0.89472000
13.46000000,0.89538000
13.47000000,0.89827000
13.48000000,0.89893000
13.49000000,0.90182000
13.50000000,0.90249000
13.51000000,0.90316000
13.52000000,0.90383000
13.53000000,0.90450000
13.54000000,0.90516000
13.55000000,0.90583000
13.56000000,0.90650000
13.57000000,0.90940000
13.58000000,0.91007000
13.59000000,0.91298000
13.60000000,0.91365000
13.61000000,0.91657000
13.62000000,0.91724000
13.63000000,0.92016000
13.64000000,0.92083000
13.65000000,0.92151000
13.66000000,0.91993000
13.67000000,0.92061000
13.68000000,0.91903000
13.69000000,0.91745000
13.70000000,0.91586000
13.71000000,0.91427000
13.72000000,0.91268000
13.73000000,0.91108000
13.74000000,0.90948000
13.75000000,0.90788000
13.76000000,0.90854000
13.77000000,0.90920000
13.78000000,0.90986000
13.79000000,0.91052000
13.80000000,0.91346000
13.81000000,0.91412000
13.82000000,0.91706000
13.83000000,0.92000000
13.84000000,0.92066000
13.85000000,0.92133000
13.86000000,0.92427000
13.87000000,0.92494000
13.88000000,0.92561000
13.89000000,0.92627000
13.90000000,0.92694000
13.91000000,0.92990000
13.92000000,0.93057000
13.93000000,0.93124000
13.94000000,0.93420000
13.95000000,0.93717000
13.96000000,0.94014000
13.97000000,0.94311000
13.98000000,0.94609000
13.99000000,0.94907000
14.00000000,0.95436000
14.01000000,0.95735000
14.02000000,0.96034000
14.03000000,0.96333000
14.04000000,0.96633000
14.05000000,0.96702000
14.06000000,0.97002000
14.07000000,0.97071000
14.08000000,0.96908000
14.09000000,0.96977000
14.10000000,0.96814000
14.11000000,0.96883000
14.12000000,0.96719000
14.13000000,0.96555000
14.14000000,0.96623000
14.15000000,0.96691000
14.16000000,0.96526000
14.17000000,0.96828000
14.18000000,0.96896000
14.19000000,0.97198000
14.20000000,0.97267000
14.21000000,0.97569000
14.22000000,0.97872000
14.23000000,0.97941000
14.24000000,0.98244000
14.25000000,0.98313000
14.26000000,0.98382000
14.27000000,0.98216000
14.28000000,0.98050000
14.29000000,0.98118000
14.30000000,0.97952000
14.31000000,0.97785000
14.32000000,0.97853000
14.33000000,0.97685000
14.34000000,0.97753000
14.35000000,0.97822000
14.36000000,0.98126000
14.37000000,0.98195000
14.38000000,0.98500000
14.39000000,0.98805000
14.40000000,0.99111000
14.41000000,0.99180000
14.42000000,0.99486000
14.43000000,0.99793000
14.44000000,0.99862000
14.45000000,0.99931000
14.46000000,1.00000000
14.47000000,0.99831000
14.48000000,0.99661000
14.49000000,0.99492000
14.50000000,0.99322000
14.51000000,0.99151000
14.52000000,0.98980000
14.53000000,0.98809000
14.54000000,0.98638000
14.55000000,0.98466000
14.56000000,0.98294000
14.57000000,0.98122000
14.58000000,0.97949000
14.59000000,0.97776000
14.60000000,0.97603000
14.61000000,0.97429000
14.62000000,0.97255000
14.63000000,0.97080000
14.64000000,0.96906000
14.65000000,0.96731000
14.66000000,0.96555000
14.67000000,0.96380000
14.68000000,0.96204000
14.69000000,0.96269000
14.70000000,0.96093000
14.71000000,0.96158000
14.72000000,0.95981000
14.73000000,0.96046000
14.74000000,0.95869000
14.75000000,0.95934000
14.76000000,0.95999000
14.77000000,0.95821000
14.78000000,0.95642000
14.79000000,0.95463000
14.80000000,0.95284000
14.81000000,0.95349000
14.82000000,0.94925000
14.83000000,0.94745000
14.84000000,0.94564000
14.85000000,0.94384000
14.86000000,0.94202000
14.87000000,0.94021000
14.88000000,0.93839000
14.89000000,0.93657000
14.90000000,0.93475000
14.91000000,0.93292000
14.92000000,0.93109000
14.93000000,0.92679000
14.94000000,0.92496000
14.95000000,0.92311000
14.96000000,0.91880000
14.97000000,0.91695000
14.98000000,0.91510000
14.99000000,0.91077000
15.00000000,0.90891000
15.01000000,0.90705000
15.02000000,0.90518000
15.03000000,0.90330000
15.04000000,0.90143000
15.05000000,0.89955000
15.06000000,0.89767000
15.07000000,0.89578000
15.08000000,0.89389000
15.09000000,0.89200000
15.10000000,0.88762000
15.11000000,0.88572000
15.12000000,0.88382000
15.13000000,0.87942000
15.14000000,0.87501000
15.15000000,0.87060000
15.16000000,0.86619000
15.17000000,0.85926000
15.18000000,0.85233000
15.19000000,0.84539000
15.20000000,0.83844000
15.21000000,0.83148000
15.22000000,0.82200000
15.23000000,0.81502000
15.24000000,0.80551000
15.25000000,0.79851000
15.26000000,0.79149000
15.27000000,0.78196000
15.28000000,0.77492000
15.29000000,0.76787000
15.30000000,0.76082000
15.31000000,0.75375000
15.32000000,0.74920000
15.33000000,0.74212000
15.34000000,0.73502000
15.35000000,0.72792000
15.36000000,0.72081000
15.37000000,0.71368000
15.38000000,0.70680000
15.39000000,0.69966000
15.40000000,0.69251000
15.41000000,0.68535000
15.42000000,0.67817000
15.43000000,0.67328000
15.44000000,0.66609000
15.45000000,0.66143000
15.46000000,0.65931000
15.47000000,0.65465000
15.48000000,0.65252000
15.49000000,0.65039000
15.50000000,0.64826000
15.51000000,0.64868000
15.52000000,0.64909000
15.53000000,0.64696000
15.54000000,0.64737000
15.55000000,0.64779000
15.56000000,0.64821000
15.57000000,0.64862000
15.58000000,0.65160000
15.59000000,0.65202000
15.60000000,0.65244000
15.61000000,0.65286000
15.62000000,0.65585000
15.63000000,0.65627000
15.64000000,0.65926000
15.65000000,0.65969000
15.66000000,0.66269000
15.67000000,0.66311000
15.68000000,0.66611000
15.69000000,0.66654000
15.70000000,0.66696000
15.71000000,0.66997000
15.72000000,0.67040000
15.73000000,0.67083000
15.74000000,0.67125000
15.75000000,0.66909000
15.76000000,0.66951000
15.77000000,0.66994000
15.78000000,0.66776000
15.79000000,0.66819000
15.80000000,0.66601000
15.81000000,0.66383000
15.82000000,0.66425000
15.83000000,0.66206000
15.84000000,0.65987000
15.85000000,0.65768000
15.86000000,0.65287000
15.87000000,0.65067000
15.88000000,0.64846000
15.89000000,0.64364000
15.90000000,0.64142000
15.91000000,0.63659000
15.92000000,0.63175000
15.93000000,0.62952000
15.94000000,0.62467000
15.95000000,0.61981000
15.96000000,0.61757000
15.97000000,0.61269000
15.98000000,0.61045000
15.99000000,0.60820000
16.00000000,0.60594000
16.01000000,0.60368000
16.02000000,0.60142000
16.03000000,0.59916000
16.04000000,0.59953000
16.05000000,0.59726000
16.06000000,0.59764000
16.07000000,0.59801000
16.08000000,0.59838000
16.09000000,0.59875000
16.10000000,0.59647000
16.11000000,0.59684000
16.12000000,0.59721000
16.13000000,0.59493000
16.14000000,0.59530000
16.15000000,0.59567000
16.16000000,0.59337000
16.17000000,0.59108000
16.18000000,0.59144000
16.19000000,0.58914000
16.20000000,0.58684000
16.21000000,0.58453000
16.22000000,0.58222000
16.23000000,0.57991000
16.24000000,0.57492000
16.25000000,0.57260000
16.26000000,0.56760000
16.27000000,0.56259000
16.28000000,0.55757000
16.29000000,0.55255000
16.30000000,0.54484000
16.31000000,0.53711000
16.32000000,0.52965000
16.33000000,0.52191000
16.34000000,0.51416000
16.35000000,0.50370000
16.36000000,0.49324000
16.37000000,0.48275000
16.38000000,0.47226000
16.39000000,0.46175000
16.40000000,0.45123000
16.41000000,0.43800000
16.42000000,0.42745000
16.43000000,0.41419000
16.44000000,0.40361000
16.45000000,0.39031000
16.46000000,0.37700000
16.47000000,0.36638000
16.48000000,0.35303000
16.49000000,0.33967000
16.50000000,0.32901000
16.51000000,0.31562000
16.52000000,0.30493000
16.53000000,0.29150000
16.54000000,0.28079000
16.55000000,0.26777000
16.56000000,0.25618000
16.57000000,0.24487000
16.58000000,0.23407000
16.59000000,0.22301000
16.60000000,0.21276000
16.61000000,0.20280000
16.62000000,0.19307000
16.63000000,0.18360000
16.64000000,0.17442000
16.65000000,0.16603000
16.66000000,0.15762000
16.67000000,0.14948000
16.68000000,0.14213000
16.69000000,0.13507000
16.70000000,0.12825000
16.71000000,0.12197000
16.72000000,0.11571000
16.73000000,0.10997000
16.74000000,0.10480000
16.75000000,0.09934400
16.76000000,0.09471200
16.77000000,0.09035000
16.78000000,0.08598300
16.79000000,0.08216400
16.80000000,0.07836800
16.81000000,0.07478900
16.82000000,0.07151000
16.83000000,0.06822700
16.84000000,0.06549400
16.85000000,0.06273100
16.86000000,0.05999200
16.87000000,0.05752800
16.88000000,0.05503300
16.89000000,0.05284000
16.90000000,0.05089600
16.91000000,0.04869900
16.92000000,0.04702800
16.93000000,0.04510400
16.94000000,0.04345700
16.95000000,0.04208800
16.96000000,0.04043700
16.97000000,0.03906400
16.98000000,0.03768900
16.99000000,0.03659200
17.00000000,0.03549400
17.01000000,0.03439400
17.02000000,0.03329300
17.03000000,0.03219100
17.04000000,0.03134000
17.05000000,0.03026400
17.06000000,0.02941100
17.07000000,0.02858500
17.08000000,0.02767600
17.09000000,0.02680900
17.10000000,0.02596000
17.11000000,0.02508500
17.12000000,0.02418900
17.13000000,0.02330900
17.14000000,0.02240600
17.15000000,0.02145000
17.16000000,0.02051600
17.17000000,0.01952200
17.18000000,0.01849800
17.19000000,0.01746700
17.20000000,0.01644000
17.21000000,0.01538200
17.22000000,0.01432400
17.23000000,0.01326000
17.24000000,0.01222300
17.25000000,0.01115400
17.26000000,0.01013700
17.27000000,0.00911670
17.28000000,0.00809200
17.29000000,0.00710310
17.30000000,0.00619570
17.31000000,0.00526440
17.32000000,0.00442900
17.33000000,0.00356690
17.34000000,0.00278780
17.35000000,0.00188640
17.36000000,0.00200180
17.37000000,0.00126530
17.38000000,0.00659350
17.39000000,0.00706970
17.40000000,0.00712250
17.41000000,0.00672240
17.42000000,0.00581990
17.43000000,0.00456330
17.44000000,0.00304110
17.45000000,0.00125650
17.46000000,0.00326590
17.47000000,0.00067398
17.48000000,0.00185100
17.49000000,0.00253510
17.50000000,0.00291030
17.51000000,0.00393550
17.52000000,0.00383100
17.53000000,0.00316930
17.54000000,0.00265940
17.55000000,0.00222250
17.56000000,0.00182620
17.57000000,0.00145550
17.58000000,0.00105160
17.59000000,0.00121470
17.60000000,0.00109980
17.61000000,0.00100270
17.62000000,0.00091999
17.63000000,0.00085230
17.64000000,0.00076913
17.65000000,0.00063472
17.66000000,0.00059495
17.67000000,0.00054408
17.68000000,0.00049344
17.69000000,0.00044449
17.70000000,0.00039840
17.71000000,0.00034672
17.72000000,0.00032387
17.73000000,0.00030216
17.74000000,0.00028410
17.75000000,0.00026824
17.76000000,0.00025348
17.77000000,0.00023747
17.78000000,0.00022385
17.79000000,0.00021167
17.80000000,0.00020094
17.81000000,0.00019182
17.82000000,0.00018312
17.83000000,0.00017533
17.84000000,0.00016823
17.85000000,0.00016192
17.86000000,0.00015589
17.87000000,0.00015054
17.88000000,0.00014508
17.89000000,0.00014248
17.90000000,0.00013979
17.91000000,0.00013737
17.92000000,0.00013488
17.93000000,0.00013268
17.94000000,0.00013042
17.95000000,0.00012816
17.96000000,0.00014402
17.97000000,0.00014880
17.98000000,0.00015001
17.99000000,0.00014938
18.00000000,0.00014852
18.01000000,0.00014685
18.02000000,0.00014619
18.03000000,0.00014295
18.04000000,0.00013688
18.05000000,0.00011873
18.06000000,0.00011942
18.07000000,0.00011994
18.08000000,0.00012018
18.09000000,0.00012081
18.10000000,0.00012112
18.11000000,0.00012181
18.12000000,0.00012218
18.13000000,0.00012269
18.14000000,0.00012285
18.15000000,0.00012283
18.16000000,0.00012308
18.17000000,0.00012329
18.18000000,0.00012330
18.19000000,0.00014164
18.20000000,0.00014855
18.21000000,0.00015145
18.22000000,0.00015174
18.23000000,0.00015072
18.24000000,0.00014903
18.25000000,0.00014577
18.26000000,0.00014146
18.27000000,0.00013543
18.28000000,0.00012883
18.29000000,0.00011896
18.30000000,0.00011776
18.31000000,0.00011625
18.32000000,0.00011445
18.33000000,0.00011297
18.34000000,0.00011149
18.35000000,0.00011004
18.36000000,0.00010856
18.37000000,0.00010711
18.38000000,0.00010565
18.39000000,0.00010392
18.40000000,0.00010165
18.41000000,0.00009937
18.42000000,0.00009712
18.43000000,0.00009514
18.44000000,0.00009285
18.45000000,0.00008667
18.46000000,0.00009690
18.47000000,0.00009920
18.48000000,0.00009962
18.49000000,0.00009910
18.50000000,0.00009806
18.51000000,0.00009658
18.52000000,0.00009453
18.53000000,0.00009269
18.54000000,0.00009051
18.55000000,0.00008775
18.56000000,0.00008490
18.57000000,0.00008176
18.58000000,0.00007860
18.59000000,0.00007622
18.60000000,0.00007513
18.61000000,0.00007480
18.62000000,0.00007392
18.63000000,0.00007218
18.64000000,0.00006832
18.65000000,0.00006111
18.66000000,0.00006047
18.67000000,0.00005982
18.68000000,0.00005949
18.69000000,0.00005890
18.70000000,0.00005829
18.71000000,0.00005804
18.72000000,0.00005749
18.73000000,0.00005727
18.74000000,0.00006406
18.75000000,0.00006573
18.76000000,0.00006620
18.77000000,0.00006561
18.78000000,0.00006413
18.79000000,0.00006098
18.80000000,0.00005442
18.81000000,0.00005395
18.82000000,0.00005380
18.83000000,0.00005330
18.84000000,0.00005283
18.85000000,0.00005236
18.86000000,0.00005217
18.87000000,0.00005170
18.88000000,0.00005120
18.89000000,0.00005070
18.90000000,0.00005048
18.91000000,0.00004963
18.92000000,0.00005368
18.93000000,0.00005536
18.94000000,0.00005645
18.95000000,0.00005710
18.96000000,0.00005719
18.97000000,0.00005672
18.98000000,0.00005569
18.99000000,0.00005256
19.00000000,0.00004536
19.01000000,0.00004479
19.02000000,0.00004422
19.03000000,0.00004365
19.04000000,0.00004308
19.05000000,0.00004250
19.06000000,0.00004221
19.07000000,0.00004160
19.08000000,0.00004197
19.09000000,0.00004750
19.10000000,0.00004790
19.11000000,0.00004761
19.12000000,0.00004675
19.13000000,0.00004526
19.14000000,0.00004378
19.15000000,0.00004235
19.16000000,0.00004101
19.17000000,0.00003974
19.18000000,0.00003913
19.19000000,0.00003883
19.20000000,0.00003882
19.21000000,0.00003916
19.22000000,0.00003972
19.23000000,0.00004044
19.24000000,0.00004109
19.25000000,0.00004193
19.26000000,0.00004231
19.27000000,0.00004245
19.28000000,0.00004241
19.29000000,0.00004237
19.30000000,0.00004192
19.31000000,0.00004127
19.32000000,0.00004046
19.33000000,0.00003959
19.34000000,0.00003895
19.35000000,0.00003814
19.36000000,0.00003777
19.37000000,0.00003722
19.38000000,0.00003698
19.39000000,0.00003643
19.40000000,0.00003603
19.41000000,0.00003525
19.42000000,0.00003463
19.43000000,0.00003359
19.44000000,0.00003281
19.45000000,0.00003222
19.46000000,0.00003171
19.47000000,0.00003194
19.48000000,0.00003217
19.49000000,0.00003277
19.50000000,0.00003307
19.51000000,0.00003357
19.52000000,0.00003365
19.53000000,0.00003386
19.54000000,0.00003362
19.55000000,0.00003348
19.56000000,0.00003282
19.57000000,0.00003222
19.58000000,0.00003112
19.59000000,0.00003004
19.60000000,0.00002837
19.61000000,0.00002689
19.62000000,0.00002611
19.63000000,0.00002685
19.64000000,0.00002765
19.65000000,0.00002818
19.66000000,0.00002851
19.67000000,0.00002861
19.68000000,0.00002861
19.69000000,0.00002849
19.70000000,0.00002833
19.71000000,0.00002821
19.72000000,0.00002803
19.73000000,0.00002787
19.74000000,0.00002772
19.75000000,0.00002760
19.76000000,0.00002742
19.77000000,0.00002723
19.78000000,0.00002700
19.79000000,0.00002677
19.80000000,0.00002649
19.81000000,0.00002614
19.82000000,0.00002585
19.83000000,0.00002557
19.84000000,0.00002537
19.85000000,0.00002526
19.86000000,0.00002521
19.87000000,0.00002523
19.88000000,0.00002522
19.89000000,0.00002527
19.90000000,0.00002524
19.91000000,0.00002519
19.92000000,0.00002504
19.93000000,0.00002468
19.94000000,0.00002408
19.95000000,0.00002285
19.96000000,0.00002131
19.97000000,0.00002250
19.98000000,0.00002433
19.99000000,0.00002567
20.00000000,0.00002626
20.01000000,0.00002491
20.02000000,0.00002278
20.03000000,0.00002150
20.04000000,0.00002134
20.05000000,0.00002121
20.06000000,0.00002105
20.07000000,0.00002088
20.08000000,0.00002071
20.09000000,0.00002058
20.10000000,0.00002044
20.11000000,0.00002030
20.12000000,0.00002125
20.13000000,0.00002274
20.14000000,0.00002339
20.15000000,0.00002371
20.16000000,0.00002377
20.17000000,0.00002372
20.18000000,0.00002362
20.19000000,0.00002352
20.20000000,0.00002330
20.21000000,0.00002297
20.22000000,0.00002260
20.23000000,0.00002225
20.24000000,0.00002182
20.25000000,0.00002128
20.26000000,0.00002065
20.27000000,0.00001966
20.28000000,0.00001872
20.29000000,0.00002000
20.30000000,0.00002068
20.31000000,0.00002098
20.32000000,0.00002113
20.33000000,0.00002110
20.34000000,0.00002102
20.35000000,0.00002095
20.36000000,0.00002073
20.37000000,0.00002010
20.38000000,0.00001773
20.39000000,0.00001696
20.40000000,0.00001687
20.41000000,0.00001679
20.42000000,0.00001670
20.43000000,0.00001669
20.44000000,0.00001885
20.45000000,0.00001933
20.46000000,0.00001945
20.47000000,0.00001953
20.48000000,0.00001961
20.49000000,0.00001968
20.50000000,0.00001973
20.51000000,0.00001975
20.52000000,0.00001983
20.53000000,0.00001981
20.54000000,0.00001956
20.55000000,0.00001928
20.56000000,0.00001897
20.57000000,0.00001855
20.58000000,0.00001784
20.59000000,0.00001560
20.60000000,0.00001636
20.61000000,0.00001636
20.62000000,0.00001639
20.63000000,0.00001635
20.64000000,0.00001635
20.65000000,0.00001635
20.66000000,0.00001636
20.67000000,0.00001636
20.68000000,0.00001904
20.69000000,0.00001995
20.70000000,0.00002029
20.71000000,0.00002036
20.72000000,0.00002023
20.73000000,0.00002007
20.74000000,0.00001996
20.75000000,0.00001984
20.76000000,0.00001974
20.77000000,0.00001961
20.78000000,0.00001946
20.79000000,0.00001956
20.80000000,0.00001973
20.81000000,0.00001988
20.82000000,0.00002009
20.83000000,0.00002009
20.84000000,0.00001985
20.85000000,0.00001955
20.86000000,0.00001914
20.87000000,0.00001867
20.88000000,0.00001871
20.89000000,0.00001908
20.90000000,0.00001926
20.91000000,0.00001942
20.92000000,0.00001943
20.93000000,0.00001922
20.94000000,0.00001892
20.95000000,0.00001864
20.96000000,0.00001811
20.97000000,0.00001674
20.98000000,0.00001585
20.99000000,0.00001580
21.00000000,0.00001580
21.01000000,0.00001578
21.02000000,0.00001574
21.03000000,0.00001731
21.04000000,0.00001854
21.05000000,0.00001906
21.06000000,0.00001936
21.07000000,0.00001955
21.08000000,0.00001980
21.09000000,0.00001986
21.10000000,0.00001964
21.11000000,0.00001922
21.12000000,0.00001868
21.13000000,0.00001767
21.14000000,0.00001538
21.15000000,0.00001536
21.16000000,0.00001535
21.17000000,0.00001533
21.18000000,0.00001527
21.19000000,0.00001525
21.20000000,0.00001523
21.21000000,0.00001517
21.22000000,0.00001515
21.23000000,0.00001513
21.24000000,0.00001511
21.25000000,0.00001505
21.26000000,0.00001506
21.27000000,0.00001508
21.28000000,0.00001493
21.29000000,0.00001675
21.30000000,0.00001752
21.31000000,0.00001792
21.32000000,0.00001802
21.33000000,0.00001790
21.34000000,0.00001749
21.35000000,0.00001680
21.36000000,0.00001669
21.37000000,0.00001755
21.38000000,0.00001829
21.39000000,0.00001888
21.40000000,0.00001933
21.41000000,0.00001939
21.42000000,0.00001905
21.43000000,0.00001845
21.44000000,0.00001697
21.45000000,0.00001505
21.46000000,0.00001507
21.47000000,0.00001677
21.48000000,0.00001812
21.49000000,0.00001897
21.50000000,0.00001936
21.51000000,0.00001894
21.52000000,0.00001729
21.53000000,0.00001508
21.54000000,0.00001511
21.55000000,0.00001508
21.56000000,0.00001509
21.57000000,0.00001865
21.58000000,0.00001978
21.59000000,0.00002035
21.60000000,0.00002050
21.61000000,0.00002023
21.62000000,0.00001976
21.63000000,0.00001923
21.64000000,0.00001873
21.65000000,0.00001837
21.66000000,0.00001839
21.67000000,0.00001831
21.68000000,0.00001832
21.69000000,0.00001883
21.70000000,0.00001949
21.71000000,0.00002009
21.72000000,0.00002065
21.73000000,0.00002101
21.74000000,0.00002091
21.75000000,0.00002054
21.76000000,0.00001996
21.77000000,0.00001883
21.78000000,0.00001707
21.79000000,0.00001749
21.80000000,0.00001850
21.81000000,0.00001903
21.82000000,0.00001965
21.83000000,0.00001982
21.84000000,0.00001893
21.85000000,0.00001570
21.86000000,0.00001480
21.87000000,0.00001481
21.88000000,0.00001475
21.89000000,0.00001476
21.90000000,0.00001477
21.91000000,0.00001474
21.92000000,0.00001472
21.93000000,0.00001469
21.94000000,0.00001470
21.95000000,0.00001464
21.96000000,0.00001465
21.97000000,0.00001459
21.98000000,0.00001784
21.99000000,0.00001932
22.00000000,0.00002022
22.01000000,0.00002093
22.02000000,0.00002122
22.03000000,0.00002119
22.04000000,0.00002100
22.05000000,0.00002063
22.06000000,0.00002021
22.07000000,0.00002005
22.08000000,0.00002021
22.09000000,0.00002046
22.10000000,0.00002072
22.11000000,0.00002107
22.12000000,0.00002102
22.13000000,0.00002043
22.14000000,0.00001954
22.15000000,0.00001836
22.16000000,0.00001619
22.17000000,0.00001330
22.18000000,0.00001324
22.19000000,0.00001316
22.20000000,0.00001310
22.21000000,0.00001304
22.22000000,0.00001299
22.23000000,0.00001293
22.24000000,0.00001285
22.25000000,0.00001279
22.26000000,0.00001277
22.27000000,0.00001272
22.28000000,0.00001267
22.29000000,0.00001262
22.30000000,0.00001366
22.31000000,0.00001797
22.32000000,0.00001963
22.33000000,0.00002062
22.34000000,0.00002139
22.35000000,0.00002217
22.36000000,0.00002274
22.37000000,0.00002263
22.38000000,0.00002193
22.39000000,0.00002051
22.40000000,0.00001711
22.41000000,0.00001239
22.42000000,0.00001238
22.43000000,0.00001241
22.44000000,0.00001242
22.45000000,0.00001457
22.46000000,0.00001779
22.47000000,0.00001805
22.48000000,0.00001584
22.49000000,0.00001249
22.50000000,0.00001253
22.51000000,0.00001248
22.52000000,0.00001252
22.53000000,0.00001252
22.54000000,0.00001253
22.55000000,0.00001258
22.56000000,0.00001264
22.57000000,0.00001272
22.58000000,0.00001277
22.59000000,0.00001283
22.60000000,0.00001288
22.61000000,0.00001294
22.62000000,0.00001302
22.63000000,0.00001308
22.64000000,0.00001320
22.65000000,0.00001323
22.66000000,0.00001329
22.67000000,0.00001335
22.68000000,0.00001341
22.69000000,0.00001350
22.70000000,0.00001354
22.71000000,0.00001360
22.72000000,0.00001369
22.73000000,0.00001375
22.74000000,0.00001382
22.75000000,0.00001389
22.76000000,0.00001389
22.77000000,0.00001395
22.78000000,0.00001399
22.79000000,0.00001403
22.80000000,0.00001407
22.81000000,0.00001410
22.82000000,0.00001417
22.83000000,0.00001421
22.84000000,0.00001425
22.85000000,0.00001429
22.86000000,0.00001436
22.87000000,0.00001440
22.88000000,0.00001448
22.89000000,0.00001455
22.90000000,0.00001457
22.91000000,0.00001464
22.92000000,0.00001472
22.93000000,0.00001479
22.94000000,0.00001484
22.95000000,0.00001486
22.96000000,0.00001487
22.97000000,0.00001491
22.98000000,0.00001490
22.99000000,0.00001489
23.00000000,0.00001496
23.01000000,0.00001495
23.02000000,0.00001783
23.03000000,0.00002373
23.04000000,0.00002245
23.05000000,0.00001503
23.06000000,0.00001503
23.07000000,0.00001508
23.08000000,0.00001508
23.09000000,0.00001511
23.10000000,0.00001514
23.11000000,0.00001522
23.12000000,0.00001525
23.13000000,0.00001528
23.14000000,0.00001535
23.15000000,0.00001541
23.16000000,0.00002613
23.17000000,0.00003539
23.18000000,0.00004191
23.19000000,0.00004681
23.20000000,0.00004851
23.21000000,0.00004777
23.22000000,0.00004622
23.23000000,0.00004471
23.24000000,0.00004278
23.25000000,0.00004046
23.26000000,0.00003861
23.27000000,0.00003707
23.28000000,0.00003495
23.29000000,0.00003199
23.30000000,0.00002810
23.31000000,0.00002385
23.32000000,0.00002034
23.33000000,0.00001573
23.34000000,0.00001695
23.35000000,0.00001707
23.36000000,0.00001718
23.37000000,0.00001731
23.38000000,0.00001739
23.39000000,0.00001286
23.40000000,0.00001957
23.41000000,0.00002275
23.42000000,0.00002441
23.43000000,0.00002447
23.44000000,0.00002413
23.45000000,0.00002496
23.46000000,0.00002429
23.47000000,0.00001385
23.48000000,0.00001852
23.49000000,0.00001865
23.50000000,0.00001876
23.51000000,0.00001889
23.52000000,0.00001902
23.53000000,0.00001917
23.54000000,0.00001932
23.55000000,0.00001947
23.56000000,0.00001960
23.57000000,0.00001973
23.58000000,0.00001988
23.59000000,0.00002006
23.60000000,0.00002024
23.61000000,0.00002042
23.62000000,0.00002060
23.63000000,0.00002075
23.64000000,0.00002095
23.65000000,0.00002112
23.66000000,0.00002131
23.67000000,0.00002148
23.68000000,0.00002168
23.69000000,0.00002621
23.70000000,0.00003535
23.71000000,0.00004150
23.72000000,0.00004659
23.73000000,0.00005083
23.74000000,0.00005367
23.75000000,0.00005393
23.76000000,0.00004871
23.77000000,0.00003243
23.78000000,0.00002374
23.79000000,0.00002398
23.80000000,0.00002425
23.81000000,0.00002452
23.82000000,0.00002481
23.83000000,0.00002512
23.84000000,0.00004341
23.85000000,0.00005686
23.86000000,0.00006341
23.87000000,0.00006607
23.88000000,0.00006606
23.89000000,0.00006439
23.90000000,0.00006316
23.91000000,0.00006185
23.92000000,0.00005786
23.93000000,0.00005012
23.94000000,0.00003731
23.95000000,0.00002885
23.96000000,0.00002918
23.97000000,0.00002951
23.98000000,0.00002984
23.99000000,0.00003019
24.00000000,0.00001660
24.01000000,0.00005112
24.02000000,0.00006617
24.03000000,0.00007581
24.04000000,0.00007834
24.05000000,0.00007568
24.06000000,0.00007289
24.07000000,0.00007118
24.08000000,0.00006927
24.09000000,0.00006708
24.10000000,0.00006564
24.11000000,0.00006542
24.12000000,0.00006494
24.13000000,0.00006444
24.14000000,0.00006384
24.15000000,0.00006410
24.16000000,0.00006516
24.17000000,0.00006742
24.18000000,0.00007007
24.19000000,0.00007257
24.20000000,0.00007300
24.21000000,0.00007068
24.22000000,0.00006349
24.23000000,0.00004608
24.24000000,0.00003868
24.25000000,0.00003926
24.26000000,0.00003971
24.27000000,0.00004028
24.28000000,0.00004070
24.29000000,0.00004131
24.30000000,0.00004189
24.31000000,0.00006132
24.32000000,0.00007496
24.33000000,0.00007996
24.34000000,0.00008024
24.35000000,0.00007855
24.36000000,0.00007577
24.37000000,0.00007207
24.38000000,0.00006901
24.39000000,0.00006827
24.40000000,0.00006987
24.41000000,0.00007219
24.42000000,0.00007399
24.43000000,0.00007494
24.44000000,0.00007642
24.45000000,0.00008108
24.46000000,0.00008800
24.47000000,0.00009452
24.48000000,0.00010021
24.49000000,0.00010601
24.50000000,0.00011130
24.51000000,0.00011304
24.52000000,0.00010994
24.53000000,0.00010413
24.54000000,0.00009855
24.55000000,0.00009293
24.56000000,0.00008585
24.57000000,0.00007679
24.58000000,0.00006601
24.59000000,0.00004919
24.60000000,0.00006712
24.61000000,0.00006865
24.62000000,0.00006997
24.63000000,0.00007150
24.64000000,0.00003429
24.65000000,0.00008568
24.66000000,0.00011349
24.67000000,0.00013275
24.68000000,0.00014499
24.69000000,0.00015026
24.70000000,0.00014999
24.71000000,0.00014432
24.72000000,0.00013461
24.73000000,0.00012098
24.74000000,0.00010689
24.75000000,0.00009475
24.76000000,0.00008741
24.77000000,0.00008345
24.78000000,0.00008075
24.79000000,0.00007502
24.80000000,0.00006791
24.81000000,0.00006924
24.82000000,0.00008182
24.83000000,0.00009522
24.84000000,0.00010720
24.85000000,0.00012017
24.86000000,0.00013561
24.87000000,0.00014374
24.88000000,0.00013773
24.89000000,0.00011738
24.90000000,0.00008811
24.91000000,0.00001481
24.92000000,0.00019179
24.93000000,0.00020139
24.94000000,0.00021338
24.95000000,0.00022669
24.96000000,0.00024178
24.97000000,0.00025553
24.98000000,0.00027114
24.99000000,0.00028845
25.00000000,0.00030626
25.01000000,0.00032932
25.02000000,0.00035096
25.03000000,0.00037468
25.04000000,0.00040047
25.05000000,0.00043144
25.06000000,0.00045513
25.07000000,0.00048710
25.08000000,0.00051951
25.09000000,0.00055648
25.10000000,0.00059183
25.11000000,0.00063341
25.12000000,0.00011151
25.13000000,0.00015095
25.14000000,0.00017009
25.15000000,0.00017749
25.16000000,0.00017516
25.17000000,0.00017568
25.18000000,0.00020598
25.19000000,0.00026873
25.20000000,0.00033950
25.21000000,0.00040784
25.22000000,0.00047673
25.23000000,0.00054837
25.24000000,0.00060926
25.25000000,0.00064776
25.26000000,0.00066507
25.27000000,0.00067074
25.28000000,0.00067641
25.29000000,0.00068376
25.30000000,0.00069195
25.31000000,0.00069430
25.32000000,0.00067582
25.33000000,0.00063896
25.34000000,0.00059791
25.35000000,0.00055348
25.36000000,0.00049315
25.37000000,0.00042275
25.38000000,0.00039793
25.39000000,0.00045904
25.40000000,0.00054245
25.41000000,0.00060374
25.42000000,0.00064500
25.43000000,0.00068001
25.44000000,0.00071714
25.45000000,0.00075891
25.46000000,0.00080280
25.47000000,0.00084254
25.48000000,0.00087476
25.49000000,0.00090028
25.50000000,0.00092289
25.51000000,0.00094593
25.52000000,0.00096101
25.53000000,0.00097652
25.54000000,0.00098994
25.55000000,0.00099832
25.56000000,0.00100590
25.57000000,0.00100420
25.58000000,0.00099823
25.59000000,0.00098640
25.60000000,0.00096993
25.61000000,0.00095428
25.62000000,0.00094073
25.63000000,0.00092886
25.64000000,0.00091740
25.65000000,0.00090594
25.66000000,0.00089615
25.67000000,0.00088551
25.68000000,0.00088078
25.69000000,0.00087478
25.70000000,0.00086284
25.71000000,0.00083736
25.72000000,0.00080465
25.73000000,0.00077234
25.74000000,0.00073958
25.75000000,0.00070553
25.76000000,0.00066890
25.77000000,0.00064752
25.78000000,0.00065116
25.79000000,0.00066501
25.80000000,0.00067546
25.81000000,0.00068125
25.82000000,0.00068959
25.83000000,0.00069751
25.84000000,0.00070161
25.85000000,0.00069848
25.86000000,0.00069151
25.87000000,0.00068666
25.88000000,0.00068309
25.89000000,0.00067782
25.90000000,0.00067381
25.91000000,0.00066597
25.92000000,0.00065385
25.93000000,0.00064001
25.94000000,0.00062702
25.95000000,0.00061273
25.96000000,0.00060057
25.97000000,0.00059182
25.98000000,0.00058520
25.99000000,0.00058329
26.00000000,0.00058180
26.01000000,0.00057860
26.02000000,0.00057754
26.03000000,0.00057947
26.04000000,0.00058313
26.05000000,0.00059021
26.06000000,0.00059859
26.07000000,0.00060998
26.08000000,0.00062653
26.09000000,0.00063880
26.10000000,0.00064421
26.11000000,0.00063757
26.12000000,0.00062276
26.13000000,0.00060407
26.14000000,0.00058106
26.15000000,0.00055674
26.16000000,0.00053154
26.17000000,0.00050675
26.18000000,0.00048453
26.19000000,0.00046531
26.20000000,0.00044650
26.21000000,0.00042777
26.22000000,0.00040125
26.23000000,0.00036932
26.24000000,0.00034781
26.25000000,0.00035317
26.26000000,0.00037942
26.27000000,0.00040695
26.28000000,0.00042710
26.29000000,0.00044717
26.30000000,0.00046899
26.31000000,0.00048780
26.32000000,0.00049665
26.33000000,0.00049641
26.34000000,0.00049616
26.35000000,0.00049592
26.36000000,0.00049784
26.37000000,0.00049977
26.38000000,0.00049778
26.39000000,0.00050362
26.40000000,0.00051033
26.41000000,0.00052096
26.42000000,0.00052769
26.43000000,0.00053398
26.44000000,0.00053984
26.45000000,0.00053743
26.46000000,0.00052718
26.47000000,0.00050515
26.48000000,0.00047264
26.49000000,0.00043343
26.50000000,0.00039336
26.51000000,0.00034877
26.52000000,0.00029729
26.53000000,0.00023594
26.54000000,0.00015588
26.55000000,0.00062559
26.56000000,0.00062976
26.57000000,0.00063612
26.58000000,0.00064336
26.59000000,0.00065061
26.60000000,0.00065392
26.61000000,0.00065767
26.62000000,0.00066493
26.63000000,0.00067132
26.64000000,0.00067508
26.65000000,0.00068235
26.66000000,0.00013740
26.67000000,0.00017394
26.68000000,0.00018912
26.69000000,0.00019789
26.70000000,0.00020610
26.71000000,0.00021841
26.72000000,0.00023235
26.73000000,0.00023683
26.74000000,0.00022156
26.75000000,0.00018565
26.76000000,0.00013593
26.77000000,0.00006528
26.78000000,0.00066231
26.79000000,0.00065947
26.80000000,0.00066016
26.81000000,0.00065732
26.82000000,0.00065447
26.83000000,0.00064897
26.84000000,0.00063949
26.85000000,0.00063310
26.86000000,0.00062360
26.87000000,0.00061720
26.88000000,0.00060858
26.89000000,0.00009240
26.90000000,0.00013890
26.91000000,0.00017188
26.92000000,0.00019610
26.93000000,0.00021564
26.94000000,0.00023421
26.95000000,0.00025250
26.96000000,0.00027150
26.97000000,0.00029096
26.98000000,0.00030942
26.99000000,0.00032664
27.00000000,0.00033948
27.01000000,0.00034223
27.02000000,0.00034311
27.03000000,0.00033928
27.04000000,0.00033237
27.05000000,0.00032398
27.06000000,0.00031466
27.07000000,0.00030564
27.08000000,0.00029688
27.09000000,0.00028789
27.10000000,0.00027858
27.11000000,0.00026953
27.12000000,0.00026021
27.13000000,0.00025105
27.14000000,0.00024217
27.15000000,0.00023309
27.16000000,0.00022401
27.17000000,0.00021483
27.18000000,0.00019723
27.19000000,0.00017631
27.20000000,0.00015752
27.21000000,0.00014068
27.22000000,0.00012500
27.23000000,0.00011093
27.24000000,0.00009899
27.25000000,0.00008942
27.26000000,0.00008147
27.27000000,0.00007454
27.28000000,0.00006792
27.29000000,0.00006170
27.30000000,0.00005579
27.31000000,0.00005045
27.32000000,0.00004579
27.33000000,0.00004140
27.34000000,0.00003733
27.35000000,0.00003371
27.36000000,0.00003015
27.37000000,0.00002681
27.38000000,0.00002381
27.39000000,0.00002114
27.40000000,0.00001880
27.41000000,0.00001684
27.42000000,0.00001504
27.43000000,0.00001343
27.44000000,0.00001198
27.45000000,0.00001064
27.46000000,0.00000942
27.47000000,0.00000834
27.48000000,0.00000731
27.49000000,0.00000641
27.50000000,0.00000560
27.51000000,0.00000488
27.52000000,0.00000426
27.53000000,0.00000373
27.54000000,0.00000351
27.55000000,0.00000341
27.56000000,0.00000330
27.57000000,0.00000322
27.58000000,0.00000315
27.59000000,0.00000307
27.60000000,0.00000301
27.61000000,0.00000291
27.62000000,0.00000282
27.63000000,0.00000273
27.64000000,0.00000264
27.65000000,0.00000253
27.66000000,0.00000243
27.67000000,0.00000234
27.68000000,0.00000225
27.69000000,0.00000216
27.70000000,0.00000207
27.71000000,0.00000198
27.72000000,0.00000199
27.73000000,0.00000211
27.74000000,0.00000224
27.75000000,0.00000238
27.76000000,0.00000252
27.77000000,0.00000268
27.78000000,0.00000285
27.79000000,0.00000302
27.80000000,0.00000321
27.81000000,0.00000342
27.82000000,0.00000362
27.83000000,0.00000384
27.84000000,0.00000409
27.85000000,0.00000434
27.86000000,0.00000461
27.87000000,0.00000493
27.88000000,0.00000527
27.89000000,0.00000567
27.90000000,0.00000603
27.91000000,0.00000648
27.92000000,0.00000697
27.93000000,0.00000749
27.94000000,0.00000801
27.95000000,0.00000858
27.96000000,0.00000916
27.97000000,0.00000975
27.98000000,0.00001045
27.99000000,0.00001115
28.00000000,0.00001182
28.05000000,0.00001297
28.10000000,0.00001683
28.15000000,0.00001980
28.20000000,0.00002331
28.25000000,0.00002747
28.30000000,0.00003041
28.35000000,0.00003123
28.40000000,0.00003190
28.45000000,0.00003654
28.50000000,0.00003948
28.55000000,0.00004056
